#                                                                                
# Lorentzian broadening with gamma= 0.050000  [eV]
# Im(epsilon) shifted by   1.0000   [eV]
# No intraband contributions added
#
# Energy [eV]  ref_ind_xx    extinct_xx
#
   0.013610  0.206681E+01  0.214622E-02
   0.040820  0.206682E+01  0.216093E-02
   0.068030  0.206686E+01  0.217580E-02
   0.095240  0.206690E+01  0.219082E-02
   0.122450  0.206697E+01  0.220602E-02
   0.149660  0.206705E+01  0.222137E-02
   0.176870  0.206714E+01  0.223690E-02
   0.204090  0.206725E+01  0.225261E-02
   0.231300  0.206738E+01  0.226850E-02
   0.258510  0.206752E+01  0.228456E-02
   0.285720  0.206768E+01  0.230080E-02
   0.312930  0.206786E+01  0.231723E-02
   0.340140  0.206805E+01  0.233385E-02
   0.367350  0.206825E+01  0.235067E-02
   0.394570  0.206848E+01  0.236769E-02
   0.421780  0.206872E+01  0.238491E-02
   0.448990  0.206897E+01  0.240233E-02
   0.476200  0.206924E+01  0.241996E-02
   0.503410  0.206953E+01  0.243781E-02
   0.530620  0.206984E+01  0.245587E-02
   0.557830  0.207016E+01  0.247416E-02
   0.585040  0.207049E+01  0.249268E-02
   0.612260  0.207085E+01  0.251143E-02
   0.639470  0.207122E+01  0.253042E-02
   0.666680  0.207160E+01  0.254965E-02
   0.693890  0.207201E+01  0.256912E-02
   0.721100  0.207243E+01  0.258885E-02
   0.748310  0.207287E+01  0.260884E-02
   0.775520  0.207332E+01  0.262909E-02
   0.802740  0.207379E+01  0.264961E-02
   0.829950  0.207428E+01  0.267041E-02
   0.857160  0.207479E+01  0.269148E-02
   0.884370  0.207531E+01  0.271285E-02
   0.911580  0.207585E+01  0.273451E-02
   0.938790  0.207641E+01  0.275647E-02
   0.966000  0.207699E+01  0.277874E-02
   0.993220  0.207758E+01  0.280134E-02
   1.020430  0.207819E+01  0.282425E-02
   1.047640  0.207882E+01  0.284749E-02
   1.074850  0.207947E+01  0.287108E-02
   1.102060  0.208014E+01  0.289501E-02
   1.129270  0.208083E+01  0.291929E-02
   1.156480  0.208153E+01  0.294394E-02
   1.183700  0.208225E+01  0.296898E-02
   1.210910  0.208300E+01  0.299439E-02
   1.238120  0.208376E+01  0.302020E-02
   1.265330  0.208454E+01  0.304641E-02
   1.292540  0.208534E+01  0.307304E-02
   1.319750  0.208616E+01  0.310009E-02
   1.346960  0.208700E+01  0.312759E-02
   1.374180  0.208786E+01  0.315554E-02
   1.401390  0.208874E+01  0.318395E-02
   1.428600  0.208964E+01  0.321284E-02
   1.455810  0.209056E+01  0.324221E-02
   1.483020  0.209150E+01  0.327209E-02
   1.510230  0.209247E+01  0.330249E-02
   1.537440  0.209345E+01  0.333342E-02
   1.564660  0.209446E+01  0.336492E-02
   1.591870  0.209549E+01  0.339698E-02
   1.619080  0.209654E+01  0.342961E-02
   1.646290  0.209761E+01  0.346286E-02
   1.673500  0.209871E+01  0.349672E-02
   1.700710  0.209983E+01  0.353123E-02
   1.727920  0.210098E+01  0.356641E-02
   1.755130  0.210214E+01  0.360227E-02
   1.782350  0.210334E+01  0.363886E-02
   1.809560  0.210455E+01  0.367616E-02
   1.836770  0.210579E+01  0.371423E-02
   1.863980  0.210706E+01  0.375309E-02
   1.891190  0.210835E+01  0.379276E-02
   1.918400  0.210967E+01  0.383327E-02
   1.945610  0.211102E+01  0.387466E-02
   1.972830  0.211239E+01  0.391698E-02
   2.000040  0.211379E+01  0.396023E-02
   2.027250  0.211522E+01  0.400445E-02
   2.054460  0.211668E+01  0.404970E-02
   2.081670  0.211816E+01  0.409602E-02
   2.108880  0.211968E+01  0.414343E-02
   2.136090  0.212122E+01  0.419200E-02
   2.163310  0.212280E+01  0.424179E-02
   2.190520  0.212441E+01  0.429282E-02
   2.217730  0.212605E+01  0.434516E-02
   2.244940  0.212772E+01  0.439886E-02
   2.272150  0.212943E+01  0.445400E-02
   2.299360  0.213117E+01  0.451064E-02
   2.326570  0.213294E+01  0.456885E-02
   2.353790  0.213476E+01  0.462873E-02
   2.381000  0.213661E+01  0.469032E-02
   2.408210  0.213849E+01  0.475373E-02
   2.435420  0.214042E+01  0.481906E-02
   2.462630  0.214238E+01  0.488641E-02
   2.489840  0.214439E+01  0.495589E-02
   2.517050  0.214644E+01  0.502761E-02
   2.544270  0.214853E+01  0.510175E-02
   2.571480  0.215067E+01  0.517838E-02
   2.598690  0.215285E+01  0.525768E-02
   2.625900  0.215509E+01  0.533983E-02
   2.653110  0.215737E+01  0.542499E-02
   2.680320  0.215970E+01  0.551337E-02
   2.707530  0.216208E+01  0.560518E-02
   2.734750  0.216452E+01  0.570071E-02
   2.761960  0.216701E+01  0.580014E-02
   2.789170  0.216957E+01  0.590379E-02
   2.816380  0.217218E+01  0.601199E-02
   2.843590  0.217486E+01  0.612509E-02
   2.870800  0.217760E+01  0.624349E-02
   2.898010  0.218042E+01  0.636763E-02
   2.925220  0.218330E+01  0.649801E-02
   2.952440  0.218627E+01  0.663525E-02
   2.979650  0.218931E+01  0.677987E-02
   3.006860  0.219243E+01  0.693264E-02
   3.034070  0.219565E+01  0.709438E-02
   3.061280  0.219896E+01  0.726604E-02
   3.088490  0.220237E+01  0.744871E-02
   3.115700  0.220588E+01  0.764363E-02
   3.142920  0.220951E+01  0.785237E-02
   3.170130  0.221325E+01  0.807649E-02
   3.197340  0.221713E+01  0.831813E-02
   3.224550  0.222114E+01  0.857972E-02
   3.251760  0.222530E+01  0.886422E-02
   3.278970  0.222963E+01  0.917522E-02
   3.306180  0.223413E+01  0.951716E-02
   3.333400  0.223883E+01  0.989571E-02
   3.360610  0.224375E+01  0.103176E-01
   3.387820  0.224890E+01  0.107920E-01
   3.415030  0.225433E+01  0.113307E-01
   3.442240  0.226006E+01  0.119497E-01
   3.469450  0.226615E+01  0.126709E-01
   3.496660  0.227264E+01  0.135255E-01
   3.523880  0.227961E+01  0.145598E-01
   3.551090  0.228715E+01  0.158444E-01
   3.578300  0.229538E+01  0.174958E-01
   3.605510  0.230445E+01  0.197168E-01
   3.632720  0.231452E+01  0.228785E-01
   3.659930  0.232558E+01  0.276308E-01
   3.687140  0.233710E+01  0.347897E-01
   3.714360  0.234796E+01  0.448126E-01
   3.741570  0.235679E+01  0.574380E-01
   3.768780  0.236236E+01  0.716147E-01
   3.795990  0.236420E+01  0.853783E-01
   3.823200  0.236372E+01  0.968150E-01
   3.850410  0.236301E+01  0.106147E+00
   3.877620  0.236261E+01  0.114633E+00
   3.904840  0.236211E+01  0.122827E+00
   3.932050  0.236121E+01  0.130627E+00
   3.959260  0.236001E+01  0.137797E+00
   3.986470  0.235881E+01  0.144403E+00
   4.013680  0.235763E+01  0.150742E+00
   4.040890  0.235629E+01  0.156886E+00
   4.068100  0.235466E+01  0.162710E+00
   4.095310  0.235280E+01  0.168045E+00
   4.122530  0.235086E+01  0.172775E+00
   4.149740  0.234909E+01  0.176911E+00
   4.176950  0.234770E+01  0.180639E+00
   4.204160  0.234669E+01  0.184245E+00
   4.231370  0.234589E+01  0.187873E+00
   4.258580  0.234515E+01  0.191495E+00
   4.285790  0.234446E+01  0.195067E+00
   4.313010  0.234381E+01  0.198577E+00
   4.340220  0.234320E+01  0.202022E+00
   4.367430  0.234262E+01  0.205418E+00
   4.394640  0.234206E+01  0.208787E+00
   4.421850  0.234147E+01  0.212128E+00
   4.449060  0.234080E+01  0.215398E+00
   4.476270  0.234007E+01  0.218546E+00
   4.503490  0.233927E+01  0.221516E+00
   4.530700  0.233850E+01  0.224257E+00
   4.557910  0.233782E+01  0.226795E+00
   4.585120  0.233729E+01  0.229189E+00
   4.612330  0.233689E+01  0.231480E+00
   4.639540  0.233664E+01  0.233698E+00
   4.666750  0.233653E+01  0.235883E+00
   4.693970  0.233654E+01  0.238065E+00
   4.721180  0.233663E+01  0.240246E+00
   4.748390  0.233682E+01  0.242431E+00
   4.775600  0.233709E+01  0.244644E+00
   4.802810  0.233742E+01  0.246910E+00
   4.830020  0.233776E+01  0.249229E+00
   4.857230  0.233806E+01  0.251575E+00
   4.884450  0.233832E+01  0.253906E+00
   4.911660  0.233855E+01  0.256183E+00
   4.938870  0.233876E+01  0.258390E+00
   4.966080  0.233897E+01  0.260519E+00
   4.993290  0.233916E+01  0.262543E+00
   5.020500  0.233939E+01  0.264418E+00
   5.047710  0.233973E+01  0.266134E+00
   5.074930  0.234025E+01  0.267762E+00
   5.102140  0.234093E+01  0.269372E+00
   5.129350  0.234175E+01  0.270989E+00
   5.156560  0.234270E+01  0.272633E+00
   5.183770  0.234377E+01  0.274330E+00
   5.210980  0.234492E+01  0.276099E+00
   5.238190  0.234611E+01  0.277935E+00
   5.265400  0.234733E+01  0.279823E+00
   5.292620  0.234856E+01  0.281752E+00
   5.319830  0.234980E+01  0.283705E+00
   5.347040  0.235104E+01  0.285662E+00
   5.374250  0.235230E+01  0.287607E+00
   5.401460  0.235357E+01  0.289539E+00
   5.428670  0.235487E+01  0.291456E+00
   5.455880  0.235620E+01  0.293356E+00
   5.483100  0.235755E+01  0.295238E+00
   5.510310  0.235892E+01  0.297089E+00
   5.537520  0.236031E+01  0.298879E+00
   5.564730  0.236174E+01  0.300571E+00
   5.591940  0.236331E+01  0.302162E+00
   5.619150  0.236505E+01  0.303715E+00
   5.646360  0.236696E+01  0.305310E+00
   5.673580  0.236899E+01  0.306986E+00
   5.700790  0.237108E+01  0.308733E+00
   5.728000  0.237323E+01  0.310529E+00
   5.755210  0.237544E+01  0.312356E+00
   5.782420  0.237770E+01  0.314215E+00
   5.809630  0.238002E+01  0.316102E+00
   5.836840  0.238240E+01  0.318017E+00
   5.864060  0.238485E+01  0.319965E+00
   5.891270  0.238734E+01  0.321942E+00
   5.918480  0.238989E+01  0.323942E+00
   5.945690  0.239250E+01  0.325962E+00
   5.972900  0.239516E+01  0.328008E+00
   6.000110  0.239788E+01  0.330071E+00
   6.027320  0.240067E+01  0.332149E+00
   6.054540  0.240352E+01  0.334242E+00
   6.081750  0.240643E+01  0.336348E+00
   6.108960  0.240941E+01  0.338454E+00
   6.136170  0.241247E+01  0.340554E+00
   6.163380  0.241564E+01  0.342651E+00
   6.190590  0.241893E+01  0.344753E+00
   6.217800  0.242236E+01  0.346885E+00
   6.245020  0.242593E+01  0.349085E+00
   6.272230  0.242960E+01  0.351360E+00
   6.299440  0.243337E+01  0.353699E+00
   6.326650  0.243723E+01  0.356101E+00
   6.353860  0.244120E+01  0.358569E+00
   6.381070  0.244526E+01  0.361103E+00
   6.408280  0.244941E+01  0.363696E+00
   6.435490  0.245367E+01  0.366345E+00
   6.462710  0.245804E+01  0.369058E+00
   6.489920  0.246253E+01  0.371839E+00
   6.517130  0.246714E+01  0.374698E+00
   6.544340  0.247187E+01  0.377651E+00
   6.571550  0.247670E+01  0.380702E+00
   6.598760  0.248164E+01  0.383830E+00
   6.625970  0.248669E+01  0.387031E+00
   6.653190  0.249187E+01  0.390319E+00
   6.680400  0.249717E+01  0.393698E+00
   6.707610  0.250261E+01  0.397165E+00
   6.734820  0.250818E+01  0.400720E+00
   6.762030  0.251390E+01  0.404360E+00
   6.789240  0.251978E+01  0.408073E+00
   6.816450  0.252587E+01  0.411859E+00
   6.843670  0.253223E+01  0.415768E+00
   6.870880  0.253886E+01  0.419870E+00
   6.898090  0.254573E+01  0.424237E+00
   6.925300  0.255276E+01  0.428907E+00
   6.952510  0.255989E+01  0.433839E+00
   6.979720  0.256711E+01  0.438960E+00
   7.006930  0.257446E+01  0.444228E+00
   7.034150  0.258201E+01  0.449638E+00
   7.061360  0.258981E+01  0.455205E+00
   7.088570  0.259792E+01  0.460970E+00
   7.115780  0.260641E+01  0.467003E+00
   7.142990  0.261530E+01  0.473408E+00
   7.170200  0.262457E+01  0.480313E+00
   7.197410  0.263411E+01  0.487814E+00
   7.224630  0.264382E+01  0.495905E+00
   7.251840  0.265366E+01  0.504491E+00
   7.279050  0.266371E+01  0.513523E+00
   7.306260  0.267412E+01  0.523062E+00
   7.333470  0.268499E+01  0.533278E+00
   7.360680  0.269635E+01  0.544440E+00
   7.387890  0.270803E+01  0.556795E+00
   7.415110  0.271986E+01  0.570460E+00
   7.442320  0.273176E+01  0.585488E+00
   7.469530  0.274380E+01  0.602128E+00
   7.496740  0.275587E+01  0.621026E+00
   7.523950  0.276731E+01  0.643000E+00
   7.551160  0.277668E+01  0.668749E+00
   7.578370  0.278145E+01  0.698080E+00
   7.605580  0.277907E+01  0.728428E+00
   7.632800  0.276930E+01  0.755548E+00
   7.660010  0.275491E+01  0.775698E+00
   7.687220  0.274060E+01  0.787885E+00
   7.714430  0.272981E+01  0.794448E+00
   7.741640  0.272367E+01  0.797844E+00
   7.768850  0.272227E+01  0.800599E+00
   7.796060  0.272431E+01  0.804055E+00
   7.823280  0.272917E+01  0.808245E+00
   7.850490  0.273714E+01  0.813347E+00
   7.877700  0.274892E+01  0.820434E+00
   7.904910  0.276435E+01  0.831963E+00
   7.932120  0.278060E+01  0.850185E+00
   7.959330  0.279403E+01  0.874051E+00
   7.986540  0.280351E+01  0.901134E+00
   8.013760  0.280878E+01  0.929858E+00
   8.040970  0.281026E+01  0.958111E+00
   8.068180  0.281004E+01  0.985051E+00
   8.095390  0.280939E+01  0.101178E+01
   8.122600  0.280822E+01  0.103923E+01
   8.149810  0.280649E+01  0.106807E+01
   8.177020  0.280357E+01  0.109964E+01
   8.204240  0.279711E+01  0.113486E+01
   8.231450  0.278351E+01  0.117229E+01
   8.258660  0.276121E+01  0.120670E+01
   8.285870  0.273425E+01  0.123360E+01
   8.313080  0.270725E+01  0.125391E+01
   8.340290  0.268164E+01  0.126965E+01
   8.367500  0.265816E+01  0.128207E+01
   8.394720  0.263721E+01  0.129274E+01
   8.421930  0.261806E+01  0.130310E+01
   8.449140  0.259946E+01  0.131334E+01
   8.476350  0.258094E+01  0.132283E+01
   8.503560  0.256280E+01  0.133104E+01
   8.530770  0.254575E+01  0.133798E+01
   8.557980  0.253027E+01  0.134443E+01
   8.585200  0.251594E+01  0.135127E+01
   8.612410  0.250194E+01  0.135862E+01
   8.639620  0.248790E+01  0.136602E+01
   8.666830  0.247393E+01  0.137313E+01
   8.694040  0.246030E+01  0.137989E+01
   8.721250  0.244724E+01  0.138649E+01
   8.748460  0.243471E+01  0.139334E+01
   8.775670  0.242237E+01  0.140060E+01
   8.802890  0.240993E+01  0.140821E+01
   8.830100  0.239725E+01  0.141595E+01
   8.857310  0.238437E+01  0.142367E+01
   8.884520  0.237140E+01  0.143134E+01
   8.911730  0.235835E+01  0.143906E+01
   8.938940  0.234513E+01  0.144681E+01
   8.966150  0.233178E+01  0.145452E+01
   8.993370  0.231841E+01  0.146235E+01
   9.020580  0.230486E+01  0.147053E+01
   9.047790  0.229078E+01  0.147903E+01
   9.075000  0.227600E+01  0.148766E+01
   9.102210  0.226044E+01  0.149626E+01
   9.129420  0.224408E+01  0.150459E+01
   9.156630  0.222702E+01  0.151244E+01
   9.183850  0.220949E+01  0.151982E+01
   9.211060  0.219151E+01  0.152689E+01
   9.238270  0.217289E+01  0.153367E+01
   9.265480  0.215350E+01  0.154000E+01
   9.292690  0.213336E+01  0.154563E+01
   9.319900  0.211269E+01  0.155046E+01
   9.347110  0.209153E+01  0.155466E+01
   9.374330  0.206961E+01  0.155816E+01
   9.401540  0.204692E+01  0.156055E+01
   9.428750  0.202383E+01  0.156149E+01
   9.455960  0.200090E+01  0.156114E+01
   9.483170  0.197818E+01  0.156009E+01
   9.510380  0.195515E+01  0.155842E+01
   9.537590  0.193171E+01  0.155567E+01
   9.564810  0.190838E+01  0.155162E+01
   9.592020  0.188564E+01  0.154692E+01
   9.619230  0.186283E+01  0.154252E+01
   9.646440  0.183844E+01  0.153813E+01
   9.673650  0.181197E+01  0.153211E+01
   9.700860  0.178449E+01  0.152334E+01
   9.728070  0.175694E+01  0.151197E+01
   9.755290  0.172969E+01  0.149822E+01
   9.782500  0.170317E+01  0.148247E+01
   9.809710  0.167713E+01  0.146564E+01
   9.836920  0.164985E+01  0.144796E+01
   9.864130  0.161955E+01  0.142720E+01
   9.891340  0.158725E+01  0.139930E+01
   9.918550  0.155780E+01  0.136230E+01
   9.945760  0.153560E+01  0.131882E+01
   9.972980  0.152169E+01  0.127274E+01
  10.000190  0.151508E+01  0.122690E+01
  10.027400  0.151403E+01  0.118268E+01
  10.054610  0.151709E+01  0.114024E+01
  10.081820  0.152349E+01  0.109924E+01
  10.109030  0.153299E+01  0.105940E+01
  10.136240  0.154556E+01  0.102065E+01
  10.163460  0.156123E+01  0.983032E+00
  10.190670  0.157995E+01  0.946717E+00
  10.217880  0.160163E+01  0.911810E+00
  10.245090  0.162617E+01  0.878335E+00
  10.272300  0.165352E+01  0.846079E+00
  10.299510  0.168429E+01  0.814474E+00
  10.326720  0.172044E+01  0.783860E+00
  10.353940  0.176357E+01  0.756965E+00
  10.381150  0.181287E+01  0.738035E+00
  10.408360  0.186317E+01  0.731088E+00
  10.435570  0.190531E+01  0.732449E+00
  10.462780  0.194093E+01  0.730785E+00
  10.489990  0.197911E+01  0.726374E+00
  10.517200  0.202068E+01  0.724016E+00
  10.544420  0.206433E+01  0.724715E+00
  10.571630  0.211031E+01  0.729337E+00
  10.598840  0.215636E+01  0.739816E+00
  10.626050  0.220041E+01  0.753222E+00
  10.653260  0.224457E+01  0.768688E+00
  10.680470  0.228844E+01  0.786590E+00
  10.707680  0.233320E+01  0.804750E+00
  10.734900  0.238295E+01  0.823965E+00
  10.762110  0.244028E+01  0.847647E+00
  10.789320  0.250756E+01  0.880940E+00
  10.816530  0.258514E+01  0.934343E+00
  10.843740  0.266078E+01  0.102283E+01
  10.870950  0.270575E+01  0.114419E+01
  10.898160  0.270726E+01  0.127047E+01
  10.925380  0.267601E+01  0.138134E+01
  10.952590  0.262759E+01  0.146908E+01
  10.979800  0.257367E+01  0.153802E+01
  11.007010  0.251738E+01  0.159157E+01
  11.034220  0.246290E+01  0.163160E+01
  11.061430  0.241305E+01  0.166255E+01
  11.088640  0.236722E+01  0.168824E+01
  11.115850  0.232457E+01  0.171022E+01
  11.143070  0.228424E+01  0.173082E+01
  11.170280  0.224263E+01  0.175056E+01
  11.197490  0.219835E+01  0.176594E+01
  11.224700  0.215355E+01  0.177524E+01
  11.251910  0.210923E+01  0.177821E+01
  11.279120  0.206698E+01  0.177350E+01
  11.306330  0.203034E+01  0.176092E+01
  11.333550  0.200270E+01  0.174298E+01
  11.360760  0.198567E+01  0.172364E+01
  11.387970  0.197878E+01  0.170718E+01
  11.415180  0.197967E+01  0.169698E+01
  11.442390  0.198498E+01  0.169484E+01
  11.469600  0.199140E+01  0.170059E+01
  11.496810  0.199727E+01  0.171285E+01
  11.524030  0.200235E+01  0.173122E+01
  11.551240  0.200613E+01  0.175666E+01
  11.578450  0.200676E+01  0.179126E+01
  11.605660  0.199834E+01  0.183732E+01
  11.632870  0.197040E+01  0.188904E+01
  11.660080  0.192371E+01  0.193120E+01
  11.687290  0.186961E+01  0.195859E+01
  11.714510  0.181517E+01  0.197428E+01
  11.741720  0.176304E+01  0.198192E+01
  11.768930  0.171396E+01  0.198499E+01
  11.796140  0.166616E+01  0.198620E+01
  11.823350  0.161681E+01  0.198556E+01
  11.850560  0.156430E+01  0.198039E+01
  11.877770  0.151064E+01  0.196761E+01
  11.904990  0.145907E+01  0.194752E+01
  11.932200  0.141054E+01  0.192181E+01
  11.959410  0.136507E+01  0.189047E+01
  11.986620  0.132440E+01  0.185354E+01
  12.013830  0.128974E+01  0.181293E+01
  12.041040  0.126042E+01  0.177017E+01
  12.068250  0.123589E+01  0.172511E+01
  12.095470  0.121710E+01  0.167748E+01
  12.122680  0.120559E+01  0.162862E+01
  12.149890  0.120126E+01  0.158110E+01
  12.177100  0.120239E+01  0.153600E+01
  12.204310  0.120853E+01  0.149337E+01
  12.231520  0.121908E+01  0.145439E+01
  12.258730  0.123237E+01  0.141947E+01
  12.285940  0.124708E+01  0.138773E+01
  12.313160  0.126336E+01  0.135795E+01
  12.340370  0.128238E+01  0.133023E+01
  12.367580  0.130408E+01  0.130664E+01
  12.394790  0.132557E+01  0.128768E+01
  12.422000  0.134551E+01  0.127093E+01
  12.449210  0.136488E+01  0.125486E+01
  12.476420  0.138413E+01  0.123900E+01
  12.503640  0.140453E+01  0.122178E+01
  12.530850  0.142958E+01  0.120403E+01
  12.558060  0.146015E+01  0.118997E+01
  12.585270  0.149326E+01  0.118221E+01
  12.612480  0.152593E+01  0.118022E+01
  12.639690  0.155706E+01  0.118219E+01
  12.666900  0.158712E+01  0.118693E+01
  12.694120  0.161705E+01  0.119470E+01
  12.721330  0.164640E+01  0.120690E+01
  12.748540  0.167327E+01  0.122415E+01
  12.775750  0.169505E+01  0.124555E+01
  12.802960  0.171015E+01  0.126779E+01
  12.830170  0.171973E+01  0.128728E+01
  12.857380  0.172715E+01  0.130171E+01
  12.884600  0.173633E+01  0.131210E+01
  12.911810  0.174882E+01  0.132086E+01
  12.939020  0.176508E+01  0.133011E+01
  12.966230  0.178472E+01  0.134207E+01
  12.993440  0.180600E+01  0.135861E+01
  13.020650  0.182587E+01  0.137968E+01
  13.047860  0.184286E+01  0.140231E+01
  13.075080  0.185907E+01  0.142359E+01
  13.102290  0.187919E+01  0.144334E+01
  13.129500  0.190817E+01  0.146658E+01
  13.156710  0.194522E+01  0.150436E+01
  13.183920  0.197554E+01  0.156402E+01
  13.211130  0.198733E+01  0.163209E+01
  13.238340  0.198824E+01  0.170207E+01
  13.265560  0.197440E+01  0.177756E+01
  13.292770  0.194018E+01  0.184826E+01
  13.319980  0.189329E+01  0.190473E+01
  13.347190  0.184246E+01  0.194719E+01
  13.374400  0.179209E+01  0.197859E+01
  13.401610  0.174464E+01  0.200210E+01
  13.428820  0.170048E+01  0.202144E+01
  13.456030  0.165763E+01  0.203852E+01
  13.483250  0.161449E+01  0.205310E+01
  13.510460  0.157065E+01  0.206365E+01
  13.537670  0.152798E+01  0.206924E+01
  13.564880  0.148807E+01  0.207123E+01
  13.592090  0.145085E+01  0.207117E+01
  13.619300  0.141585E+01  0.206973E+01
  13.646510  0.138271E+01  0.206747E+01
  13.673730  0.135085E+01  0.206455E+01
  13.700940  0.132024E+01  0.206110E+01
  13.728150  0.129034E+01  0.205766E+01
  13.755360  0.126007E+01  0.205416E+01
  13.782570  0.122835E+01  0.204943E+01
  13.809780  0.119578E+01  0.204126E+01
  13.836990  0.116463E+01  0.202917E+01
  13.864210  0.113641E+01  0.201376E+01
  13.891420  0.111284E+01  0.199680E+01
  13.918630  0.109313E+01  0.198109E+01
  13.945840  0.107509E+01  0.196728E+01
  13.973050  0.105746E+01  0.195453E+01
  14.000260  0.104012E+01  0.194194E+01
  14.027470  0.102341E+01  0.192921E+01
  14.054690  0.100748E+01  0.191642E+01
  14.081900  0.992179E+00  0.190365E+01
  14.109110  0.977391E+00  0.189056E+01
  14.136320  0.963568E+00  0.187686E+01
  14.163530  0.951260E+00  0.186292E+01
  14.190740  0.940410E+00  0.184937E+01
  14.217950  0.930646E+00  0.183646E+01
  14.245170  0.921712E+00  0.182417E+01
  14.272380  0.913543E+00  0.181245E+01
  14.299590  0.906159E+00  0.180133E+01
  14.326800  0.899617E+00  0.179100E+01
  14.354010  0.893780E+00  0.178187E+01
  14.381220  0.888054E+00  0.177426E+01
  14.408430  0.881667E+00  0.176793E+01
  14.435650  0.874214E+00  0.176213E+01
  14.462860  0.866000E+00  0.175612E+01
  14.490070  0.857662E+00  0.174979E+01
  14.517280  0.849381E+00  0.174354E+01
  14.544490  0.840874E+00  0.173754E+01
  14.571700  0.831758E+00  0.173149E+01
  14.598910  0.822224E+00  0.172470E+01
  14.626120  0.813080E+00  0.171708E+01
  14.653340  0.804712E+00  0.170916E+01
  14.680550  0.797022E+00  0.170140E+01
  14.707760  0.789776E+00  0.169407E+01
  14.734970  0.782553E+00  0.168725E+01
  14.762180  0.775018E+00  0.168055E+01
  14.789390  0.767469E+00  0.167353E+01
  14.816600  0.760301E+00  0.166631E+01
  14.843820  0.753619E+00  0.165915E+01
  14.871030  0.747379E+00  0.165227E+01
  14.898240  0.741471E+00  0.164580E+01
  14.925450  0.735756E+00  0.163981E+01
  14.952660  0.730133E+00  0.163433E+01
  14.979870  0.724516E+00  0.162938E+01
  15.007080  0.718801E+00  0.162499E+01
  15.034300  0.712936E+00  0.162114E+01
  15.061510  0.706936E+00  0.161795E+01
  15.088720  0.700659E+00  0.161573E+01
  15.115930  0.693717E+00  0.161481E+01
  15.143140  0.685287E+00  0.161561E+01
  15.170350  0.673540E+00  0.161816E+01
  15.197560  0.655683E+00  0.162008E+01
  15.224780  0.632616E+00  0.161527E+01
  15.251990  0.611562E+00  0.160197E+01
  15.279200  0.596389E+00  0.158518E+01
  15.306410  0.585644E+00  0.156873E+01
  15.333620  0.577323E+00  0.155357E+01
  15.360830  0.570188E+00  0.153948E+01
  15.388040  0.563840E+00  0.152598E+01
  15.415260  0.558294E+00  0.151289E+01
  15.442470  0.553582E+00  0.150029E+01
  15.469680  0.549593E+00  0.148834E+01
  15.496890  0.546140E+00  0.147717E+01
  15.524100  0.542913E+00  0.146686E+01
  15.551310  0.539606E+00  0.145725E+01
  15.578520  0.536111E+00  0.144814E+01
  15.605740  0.532394E+00  0.143948E+01
  15.632950  0.528008E+00  0.143124E+01
  15.660160  0.522772E+00  0.142241E+01
  15.687370  0.517715E+00  0.141271E+01
  15.714580  0.513090E+00  0.140259E+01
  15.741790  0.508988E+00  0.139217E+01
  15.769000  0.505470E+00  0.138168E+01
  15.796210  0.502468E+00  0.137125E+01
  15.823430  0.499939E+00  0.136095E+01
  15.850640  0.497824E+00  0.135088E+01
  15.877850  0.496015E+00  0.134105E+01
  15.905060  0.494473E+00  0.133140E+01
  15.932270  0.493206E+00  0.132191E+01
  15.959480  0.492236E+00  0.131259E+01
  15.986690  0.491579E+00  0.130346E+01
  16.013910  0.491224E+00  0.129452E+01
  16.041120  0.491191E+00  0.128576E+01
  16.068330  0.491544E+00  0.127717E+01
  16.095540  0.492403E+00  0.126874E+01
  16.122750  0.493976E+00  0.126056E+01
  16.149960  0.496513E+00  0.125287E+01
  16.177170  0.500238E+00  0.124618E+01
  16.204390  0.505169E+00  0.124128E+01
  16.231600  0.510740E+00  0.123939E+01
  16.258810  0.515308E+00  0.124138E+01
  16.286020  0.516433E+00  0.124725E+01
  16.313230  0.511000E+00  0.125454E+01
  16.340440  0.499458E+00  0.125799E+01
  16.367650  0.486406E+00  0.125558E+01
  16.394870  0.474882E+00  0.124917E+01
  16.422080  0.465387E+00  0.124078E+01
  16.449290  0.457578E+00  0.123152E+01
  16.476500  0.451001E+00  0.122181E+01
  16.503710  0.445479E+00  0.121177E+01
  16.530920  0.440987E+00  0.120164E+01
  16.558130  0.437295E+00  0.119166E+01
  16.585350  0.434166E+00  0.118184E+01
  16.612560  0.431502E+00  0.117213E+01
  16.639770  0.429300E+00  0.116251E+01
  16.666980  0.427507E+00  0.115310E+01
  16.694190  0.425942E+00  0.114382E+01
  16.721400  0.424669E+00  0.113453E+01
  16.748610  0.423793E+00  0.112527E+01
  16.775830  0.423301E+00  0.111612E+01
  16.803040  0.423150E+00  0.110709E+01
  16.830250  0.423353E+00  0.109815E+01
  16.857460  0.424002E+00  0.108928E+01
  16.884670  0.425221E+00  0.108058E+01
  16.911880  0.427071E+00  0.107227E+01
  16.939090  0.429419E+00  0.106459E+01
  16.966300  0.432054E+00  0.105764E+01
  16.993520  0.434762E+00  0.105141E+01
  17.020730  0.437490E+00  0.104577E+01
  17.047940  0.440299E+00  0.104089E+01
  17.075150  0.442812E+00  0.103700E+01
  17.102360  0.444535E+00  0.103389E+01
  17.129570  0.445199E+00  0.103105E+01
  17.156780  0.444974E+00  0.102792E+01
  17.184000  0.444289E+00  0.102425E+01
  17.211210  0.443488E+00  0.102011E+01
  17.238420  0.442738E+00  0.101561E+01
  17.265630  0.442174E+00  0.101086E+01
  17.292840  0.441835E+00  0.100603E+01
  17.320050  0.441719E+00  0.100119E+01
  17.347260  0.441856E+00  0.996400E+00
  17.374480  0.442380E+00  0.991781E+00
  17.401690  0.443375E+00  0.987783E+00
  17.428900  0.444239E+00  0.985021E+00
  17.456110  0.443877E+00  0.983128E+00
  17.483320  0.442074E+00  0.981027E+00
  17.510530  0.439388E+00  0.978026E+00
  17.537740  0.436460E+00  0.974044E+00
  17.564960  0.433655E+00  0.969253E+00
  17.592170  0.431212E+00  0.963864E+00
  17.619380  0.429193E+00  0.958128E+00
  17.646590  0.427581E+00  0.952159E+00
  17.673800  0.426427E+00  0.946074E+00
  17.701010  0.425702E+00  0.940049E+00
  17.728220  0.425296E+00  0.934184E+00
  17.755440  0.425113E+00  0.928504E+00
  17.782650  0.425096E+00  0.923010E+00
  17.809860  0.425228E+00  0.917710E+00
  17.837070  0.425481E+00  0.912666E+00
  17.864280  0.425756E+00  0.907946E+00
  17.891490  0.425896E+00  0.903545E+00
  17.918700  0.425769E+00  0.899366E+00
  17.945920  0.425324E+00  0.895254E+00
  17.973130  0.424596E+00  0.891101E+00
  18.000340  0.423616E+00  0.886866E+00
  18.027550  0.422343E+00  0.882508E+00
  18.054760  0.420690E+00  0.877875E+00
  18.081970  0.418746E+00  0.872628E+00
  18.109180  0.416939E+00  0.866603E+00
  18.136390  0.415649E+00  0.860019E+00
  18.163610  0.414965E+00  0.853214E+00
  18.190820  0.414775E+00  0.846415E+00
  18.218030  0.414943E+00  0.839664E+00
  18.245240  0.415451E+00  0.832937E+00
  18.272450  0.416358E+00  0.826298E+00
  18.299660  0.417596E+00  0.819940E+00
  18.326870  0.418916E+00  0.813860E+00
  18.354090  0.420263E+00  0.807901E+00
  18.381300  0.421640E+00  0.802002E+00
  18.408510  0.423060E+00  0.796065E+00
  18.435720  0.424620E+00  0.790033E+00
  18.462930  0.426398E+00  0.783904E+00
  18.490140  0.428505E+00  0.777660E+00
  18.517350  0.431129E+00  0.771395E+00
  18.544570  0.434389E+00  0.765405E+00
  18.571780  0.438052E+00  0.760093E+00
  18.598990  0.441565E+00  0.755439E+00
  18.626200  0.444736E+00  0.750964E+00
  18.653410  0.447780E+00  0.746407E+00
  18.680620  0.450873E+00  0.741676E+00
  18.707830  0.454241E+00  0.736766E+00
  18.735050  0.458039E+00  0.731772E+00
  18.762260  0.462401E+00  0.726803E+00
  18.789470  0.467455E+00  0.722051E+00
  18.816680  0.473216E+00  0.717774E+00
  18.843890  0.479605E+00  0.714218E+00
  18.871100  0.486427E+00  0.711592E+00
  18.898310  0.493439E+00  0.709973E+00
  18.925530  0.500446E+00  0.709360E+00
  18.952740  0.507248E+00  0.709725E+00
  18.979950  0.513683E+00  0.710936E+00
  19.007160  0.519747E+00  0.712812E+00
  19.034370  0.525567E+00  0.715323E+00
  19.061580  0.531228E+00  0.718596E+00
  19.088790  0.536744E+00  0.722867E+00
  19.116010  0.541991E+00  0.728566E+00
  19.143220  0.546277E+00  0.736303E+00
  19.170430  0.547938E+00  0.745803E+00
  19.197640  0.546457E+00  0.754956E+00
  19.224850  0.543310E+00  0.762789E+00
  19.252060  0.539319E+00  0.769852E+00
  19.279270  0.534385E+00  0.776513E+00
  19.306480  0.528344E+00  0.782937E+00
  19.333700  0.520439E+00  0.788855E+00
  19.360910  0.510975E+00  0.792854E+00
  19.388120  0.501405E+00  0.794994E+00
  19.415330  0.492036E+00  0.796187E+00
  19.442540  0.482480E+00  0.797082E+00
  19.469750  0.471680E+00  0.797690E+00
  19.496960  0.458998E+00  0.796623E+00
  19.524180  0.445407E+00  0.792451E+00
  19.551390  0.432644E+00  0.784833E+00
  19.578600  0.422239E+00  0.774822E+00
  19.605810  0.414348E+00  0.763937E+00
  19.633020  0.408451E+00  0.752987E+00
  19.660230  0.404059E+00  0.742343E+00
  19.687440  0.400684E+00  0.732140E+00
  19.714660  0.398002E+00  0.722237E+00
  19.741870  0.395926E+00  0.712514E+00
  19.769080  0.394445E+00  0.702925E+00
  19.796290  0.393520E+00  0.693516E+00
  19.823500  0.393007E+00  0.684259E+00
  19.850710  0.392891E+00  0.674931E+00
  19.877920  0.393457E+00  0.665468E+00
  19.905140  0.394877E+00  0.656106E+00
  19.932350  0.397112E+00  0.647080E+00
  19.959560  0.400067E+00  0.638555E+00
  19.986770  0.403556E+00  0.630648E+00
  20.013980  0.407413E+00  0.623284E+00
  20.041190  0.411697E+00  0.616404E+00
  20.068400  0.416461E+00  0.610177E+00
  20.095620  0.421528E+00  0.604819E+00
  20.122830  0.426544E+00  0.600373E+00
  20.150040  0.431226E+00  0.596560E+00
  20.177250  0.435673E+00  0.593011E+00
  20.204460  0.440189E+00  0.589734E+00
  20.231670  0.444799E+00  0.586918E+00
  20.258880  0.449481E+00  0.584611E+00
  20.286100  0.454277E+00  0.583016E+00
  20.313310  0.458880E+00  0.582458E+00
  20.340520  0.462677E+00  0.582838E+00
  20.367730  0.465384E+00  0.583520E+00
  20.394940  0.467425E+00  0.583971E+00
  20.422150  0.469322E+00  0.584463E+00
  20.449360  0.470847E+00  0.585451E+00
  20.476570  0.471494E+00  0.586846E+00
  20.503790  0.471045E+00  0.588169E+00
  20.531000  0.469652E+00  0.588936E+00
  20.558210  0.467793E+00  0.588881E+00
  20.585420  0.465815E+00  0.588249E+00
  20.612630  0.463733E+00  0.587077E+00
  20.639840  0.461794E+00  0.585491E+00
  20.667050  0.459916E+00  0.583760E+00
  20.694270  0.457951E+00  0.581839E+00
  20.721480  0.455989E+00  0.579658E+00
  20.748690  0.454167E+00  0.577383E+00
  20.775900  0.452299E+00  0.575367E+00
  20.803110  0.449780E+00  0.573558E+00
  20.830320  0.446369E+00  0.571342E+00
  20.857530  0.442262E+00  0.568242E+00
  20.884750  0.437740E+00  0.563905E+00
  20.911960  0.433254E+00  0.557896E+00
  20.939170  0.429958E+00  0.550069E+00
  20.966380  0.428813E+00  0.541669E+00
  20.993590  0.429188E+00  0.533953E+00
  21.020800  0.430201E+00  0.526995E+00
  21.048010  0.431560E+00  0.520505E+00
  21.075230  0.433259E+00  0.514378E+00
  21.102440  0.435238E+00  0.508661E+00
  21.129650  0.437361E+00  0.503345E+00
  21.156860  0.439529E+00  0.498346E+00
  21.184070  0.441713E+00  0.493576E+00
  21.211280  0.443918E+00  0.488967E+00
  21.238490  0.446180E+00  0.484466E+00
  21.265710  0.448563E+00  0.480079E+00
  21.292920  0.451078E+00  0.475871E+00
  21.320130  0.453681E+00  0.471877E+00
  21.347340  0.456323E+00  0.468087E+00
  21.374550  0.458998E+00  0.464479E+00
  21.401760  0.461708E+00  0.461067E+00
  21.428970  0.464416E+00  0.457883E+00
  21.456190  0.467037E+00  0.454915E+00
  21.483400  0.469529E+00  0.452063E+00
  21.510610  0.471959E+00  0.449257E+00
  21.537820  0.474380E+00  0.446523E+00
  21.565030  0.476785E+00  0.443863E+00
  21.592240  0.479251E+00  0.441251E+00
  21.619450  0.481883E+00  0.438833E+00
  21.646660  0.484587E+00  0.436825E+00
  21.673880  0.487140E+00  0.435377E+00
  21.701090  0.489135E+00  0.434497E+00
  21.728300  0.490167E+00  0.433875E+00
  21.755510  0.489965E+00  0.432877E+00
  21.782720  0.488926E+00  0.430502E+00
  21.809930  0.488347E+00  0.426567E+00
  21.837140  0.488902E+00  0.422013E+00
  21.864360  0.490280E+00  0.417567E+00
  21.891570  0.492043E+00  0.413296E+00
  21.918780  0.494134E+00  0.409027E+00
  21.945990  0.496699E+00  0.404812E+00
  21.973200  0.499740E+00  0.400863E+00
  22.000410  0.503110E+00  0.397345E+00
  22.027620  0.506596E+00  0.394301E+00
  22.054840  0.510038E+00  0.391634E+00
  22.082050  0.513417E+00  0.389250E+00
  22.109260  0.516713E+00  0.387160E+00
  22.136470  0.519835E+00  0.385362E+00
  22.163680  0.522596E+00  0.383861E+00
  22.190890  0.524671E+00  0.382273E+00
  22.218100  0.526427E+00  0.379969E+00
  22.245320  0.528480E+00  0.377010E+00
  22.272530  0.531135E+00  0.373649E+00
  22.299740  0.534625E+00  0.370257E+00
  22.326950  0.538901E+00  0.367322E+00
  22.354160  0.543679E+00  0.365221E+00
  22.381370  0.548448E+00  0.364226E+00
  22.408580  0.552418E+00  0.364179E+00
  22.435800  0.555087E+00  0.364141E+00
  22.463010  0.557125E+00  0.363126E+00
  22.490220  0.559408E+00  0.361328E+00
  22.517430  0.562071E+00  0.359030E+00
  22.544640  0.565405E+00  0.356172E+00
  22.571850  0.569969E+00  0.353168E+00
  22.599060  0.575843E+00  0.350775E+00
  22.626280  0.582657E+00  0.349685E+00
  22.653490  0.589669E+00  0.350220E+00
  22.680700  0.596182E+00  0.352227E+00
  22.707910  0.601717E+00  0.355269E+00
  22.735120  0.606143E+00  0.358744E+00
  22.762330  0.609729E+00  0.362188E+00
  22.789540  0.612860E+00  0.365531E+00
  22.816750  0.615708E+00  0.368934E+00
  22.843970  0.618235E+00  0.372549E+00
  22.871180  0.620252E+00  0.376361E+00
  22.898390  0.621743E+00  0.380128E+00
  22.925600  0.622880E+00  0.383742E+00
  22.952810  0.623926E+00  0.387204E+00
  22.980020  0.625034E+00  0.390845E+00
  23.007230  0.626019E+00  0.394905E+00
  23.034450  0.626753E+00  0.399463E+00
  23.061660  0.627031E+00  0.404772E+00
  23.088870  0.626215E+00  0.410849E+00
  23.116080  0.623919E+00  0.416966E+00
  23.143290  0.620758E+00  0.422745E+00
  23.170500  0.616732E+00  0.428937E+00
  23.197710  0.610465E+00  0.435523E+00
  23.224930  0.601143E+00  0.440583E+00
  23.252140  0.590314E+00  0.442096E+00
  23.279350  0.580484E+00  0.440424E+00
  23.306560  0.572380E+00  0.437325E+00
  23.333770  0.565478E+00  0.433814E+00
  23.360980  0.559144E+00  0.430157E+00
  23.388190  0.552908E+00  0.426132E+00
  23.415410  0.546817E+00  0.421293E+00
  23.442620  0.541195E+00  0.415553E+00
  23.469830  0.536347E+00  0.408946E+00
  23.497040  0.532476E+00  0.401796E+00
  23.524250  0.529562E+00  0.394214E+00
  23.551460  0.527860E+00  0.386420E+00
  23.578670  0.527300E+00  0.378891E+00
  23.605890  0.527595E+00  0.371859E+00
  23.633100  0.528475E+00  0.365428E+00
  23.660310  0.529682E+00  0.359562E+00
  23.687520  0.531069E+00  0.354161E+00
  23.714730  0.532561E+00  0.349131E+00
  23.741940  0.534128E+00  0.344409E+00
  23.769150  0.535725E+00  0.339979E+00
  23.796370  0.537245E+00  0.335778E+00
  23.823580  0.538659E+00  0.331616E+00
  23.850790  0.540145E+00  0.327376E+00
  23.878000  0.541838E+00  0.323170E+00
  23.905210  0.543684E+00  0.319101E+00
  23.932420  0.545634E+00  0.315142E+00
  23.959630  0.547730E+00  0.311279E+00
  23.986840  0.550009E+00  0.307610E+00
  24.014060  0.552337E+00  0.304244E+00
  24.041270  0.554553E+00  0.301089E+00
  24.068480  0.556673E+00  0.298022E+00
  24.095690  0.558715E+00  0.295062E+00
  24.122900  0.560508E+00  0.292164E+00
  24.150110  0.562050E+00  0.288955E+00
  24.177320  0.563780E+00  0.285289E+00
  24.204540  0.565962E+00  0.281463E+00
  24.231750  0.568547E+00  0.277721E+00
  24.258960  0.571449E+00  0.274173E+00
  24.286170  0.574584E+00  0.270885E+00
  24.313380  0.577886E+00  0.267905E+00
  24.340590  0.581241E+00  0.265327E+00
  24.367800  0.584372E+00  0.263123E+00
  24.395020  0.587171E+00  0.260958E+00
  24.422230  0.589882E+00  0.258680E+00
  24.449440  0.592563E+00  0.256470E+00
  24.476650  0.594942E+00  0.254227E+00
  24.503860  0.597179E+00  0.251498E+00
  24.531070  0.599821E+00  0.248320E+00
  24.558280  0.603032E+00  0.245164E+00
  24.585500  0.606516E+00  0.242326E+00
  24.612710  0.609924E+00  0.239626E+00
  24.639920  0.613409E+00  0.236690E+00
  24.667130  0.617346E+00  0.233608E+00
  24.694340  0.621778E+00  0.230660E+00
  24.721550  0.626631E+00  0.227951E+00
  24.748760  0.631889E+00  0.225564E+00
  24.775980  0.637531E+00  0.223608E+00
  24.803190  0.643478E+00  0.222221E+00
  24.830400  0.649590E+00  0.221501E+00
  24.857610  0.655721E+00  0.221559E+00
  24.884820  0.661447E+00  0.222442E+00
  24.912030  0.666473E+00  0.223635E+00
  24.939240  0.671138E+00  0.224753E+00
  24.966460  0.675733E+00  0.225854E+00
  24.993670  0.680530E+00  0.227072E+00
  25.020880  0.685513E+00  0.229011E+00
  25.048090  0.689945E+00  0.231853E+00
  25.075300  0.693361E+00  0.235041E+00
  25.102510  0.695890E+00  0.238003E+00
  25.129720  0.697881E+00  0.240490E+00
  25.156930  0.699622E+00  0.242475E+00
  25.184150  0.701340E+00  0.243987E+00
  25.211360  0.703256E+00  0.245128E+00
  25.238570  0.705515E+00  0.246134E+00
  25.265780  0.708066E+00  0.247242E+00
  25.292990  0.710792E+00  0.248557E+00
  25.320200  0.713602E+00  0.250126E+00
  25.347410  0.716414E+00  0.251972E+00
  25.374630  0.719146E+00  0.254098E+00
  25.401840  0.721723E+00  0.256461E+00
  25.429050  0.724126E+00  0.258985E+00
  25.456260  0.726427E+00  0.261638E+00
  25.483470  0.728668E+00  0.264507E+00
  25.510680  0.730794E+00  0.267662E+00
  25.537890  0.732804E+00  0.271159E+00
  25.565110  0.734623E+00  0.275239E+00
  25.592320  0.735796E+00  0.280081E+00
  25.619530  0.735754E+00  0.285422E+00
  25.646740  0.734146E+00  0.290564E+00
  25.673950  0.731278E+00  0.294726E+00
  25.701160  0.727629E+00  0.297504E+00
  25.728370  0.724011E+00  0.298550E+00
  25.755590  0.721394E+00  0.298401E+00
  25.782800  0.719897E+00  0.297968E+00
  25.810010  0.719164E+00  0.297728E+00
  25.837220  0.718959E+00  0.297818E+00
  25.864430  0.719181E+00  0.298539E+00
  25.891640  0.719227E+00  0.300425E+00
  25.918850  0.717631E+00  0.303226E+00
  25.946070  0.713566E+00  0.304665E+00
  25.973280  0.709567E+00  0.302594E+00
  26.000490  0.708522E+00  0.298880E+00
  26.027700  0.709973E+00  0.296173E+00
  26.054910  0.712295E+00  0.295147E+00
  26.082120  0.714744E+00  0.295343E+00
  26.109330  0.717245E+00  0.296793E+00
  26.136550  0.719144E+00  0.299734E+00
  26.163760  0.719659E+00  0.303756E+00
  26.190970  0.718325E+00  0.308144E+00
  26.218180  0.715061E+00  0.311787E+00
  26.245390  0.710939E+00  0.313823E+00
  26.272600  0.706835E+00  0.315001E+00
  26.299810  0.701951E+00  0.315693E+00
  26.327020  0.695984E+00  0.314489E+00
  26.354240  0.690902E+00  0.310427E+00
  26.381450  0.688415E+00  0.305158E+00
  26.408660  0.688006E+00  0.300527E+00
  26.435870  0.688374E+00  0.297013E+00
  26.463080  0.688827E+00  0.294056E+00
  26.490290  0.689495E+00  0.291276E+00
  26.517500  0.690496E+00  0.288735E+00
  26.544720  0.691760E+00  0.286531E+00
  26.571930  0.693156E+00  0.284669E+00
  26.599140  0.694600E+00  0.283088E+00
  26.626350  0.696058E+00  0.281710E+00
  26.653560  0.697550E+00  0.280457E+00
  26.680770  0.699168E+00  0.279295E+00
  26.707980  0.701016E+00  0.278315E+00
  26.735200  0.703107E+00  0.277693E+00
  26.762410  0.705295E+00  0.277652E+00
  26.789620  0.707215E+00  0.278266E+00
  26.816830  0.708527E+00  0.279263E+00
  26.844040  0.709228E+00  0.280235E+00
  26.871250  0.709535E+00  0.280986E+00
  26.898460  0.709592E+00  0.281495E+00
  26.925680  0.709468E+00  0.281716E+00
  26.952890  0.709305E+00  0.281578E+00
  26.980100  0.709280E+00  0.281141E+00
  27.007310  0.709469E+00  0.280508E+00
  27.034520  0.709930E+00  0.279777E+00
  27.061730  0.710669E+00  0.279073E+00
  27.088940  0.711626E+00  0.278492E+00
  27.116160  0.712724E+00  0.278052E+00
  27.143370  0.713961E+00  0.277736E+00
  27.170580  0.715348E+00  0.277601E+00
  27.197790  0.716838E+00  0.277706E+00
  27.225000  0.718367E+00  0.278069E+00
  27.252210  0.719891E+00  0.278674E+00
  27.279420  0.721409E+00  0.279515E+00
  27.306640  0.722928E+00  0.280633E+00
  27.333850  0.724413E+00  0.282101E+00
  27.361060  0.725762E+00  0.283997E+00
  27.388270  0.726851E+00  0.286344E+00
  27.415480  0.727474E+00  0.289172E+00
  27.442690  0.727358E+00  0.292274E+00
  27.469900  0.726501E+00  0.295288E+00
  27.497110  0.725130E+00  0.298002E+00
  27.524330  0.723599E+00  0.300465E+00
  27.551540  0.721957E+00  0.303208E+00
  27.578750  0.719542E+00  0.306499E+00
  27.605960  0.715665E+00  0.309917E+00
  27.633170  0.709996E+00  0.312665E+00
  27.660380  0.702592E+00  0.313758E+00
  27.687590  0.693910E+00  0.312018E+00
  27.714810  0.685787E+00  0.305926E+00
  27.742020  0.681704E+00  0.296740E+00
  27.769230  0.681860E+00  0.288107E+00
  27.796440  0.684228E+00  0.281287E+00
  27.823650  0.687722E+00  0.276060E+00
  27.850860  0.691895E+00  0.272210E+00
  27.878070  0.696531E+00  0.269567E+00
  27.905290  0.701625E+00  0.268137E+00
  27.932500  0.707051E+00  0.268222E+00
  27.959710  0.712388E+00  0.270102E+00
  27.986920  0.717130E+00  0.273950E+00
  28.014130  0.720432E+00  0.280126E+00
  28.041340  0.720235E+00  0.288210E+00
  28.068550  0.715341E+00  0.295072E+00
  28.095770  0.708099E+00  0.297967E+00
  28.122980  0.701453E+00  0.297188E+00
  28.150190  0.696634E+00  0.294435E+00
  28.177400  0.693407E+00  0.290867E+00
  28.204610  0.691681E+00  0.286625E+00
  28.231820  0.692125E+00  0.282217E+00
  28.259030  0.694919E+00  0.279239E+00
  28.286250  0.698441E+00  0.279309E+00
  28.313460  0.700200E+00  0.281645E+00
  28.340670  0.700124E+00  0.284215E+00
  28.367880  0.698961E+00  0.286796E+00
  28.395090  0.696492E+00  0.289248E+00
  28.422300  0.692763E+00  0.290989E+00
  28.449510  0.688072E+00  0.291576E+00
  28.476730  0.682865E+00  0.290570E+00
  28.503940  0.678049E+00  0.287759E+00
  28.531150  0.674480E+00  0.283826E+00
  28.558360  0.672095E+00  0.279657E+00
  28.585570  0.670460E+00  0.275542E+00
  28.612780  0.669441E+00  0.271460E+00
  28.639990  0.668965E+00  0.267582E+00
  28.667200  0.668765E+00  0.263938E+00
  28.694420  0.668757E+00  0.260334E+00
  28.721630  0.669073E+00  0.256700E+00
  28.748840  0.669793E+00  0.253151E+00
  28.776050  0.670878E+00  0.249788E+00
  28.803260  0.672263E+00  0.246684E+00
  28.830470  0.673843E+00  0.243849E+00
  28.857680  0.675572E+00  0.241223E+00
  28.884900  0.677506E+00  0.238770E+00
  28.912110  0.679681E+00  0.236562E+00
  28.939320  0.682143E+00  0.234638E+00
  28.966530  0.684957E+00  0.233252E+00
  28.993740  0.687867E+00  0.232725E+00
  29.020950  0.690376E+00  0.233164E+00
  29.048160  0.691887E+00  0.234274E+00
  29.075380  0.692205E+00  0.235302E+00
  29.102590  0.691722E+00  0.235713E+00
  29.129800  0.690796E+00  0.235423E+00
  29.157010  0.689591E+00  0.234182E+00
  29.184220  0.688841E+00  0.231733E+00
  29.211430  0.689395E+00  0.228730E+00
  29.238640  0.691152E+00  0.226276E+00
  29.265860  0.693341E+00  0.224882E+00
  29.293070  0.695183E+00  0.224483E+00
  29.320280  0.696101E+00  0.224541E+00
  29.347490  0.696050E+00  0.224250E+00
  29.374700  0.695546E+00  0.223045E+00
  29.401910  0.695241E+00  0.220796E+00
  29.429120  0.695886E+00  0.217792E+00
  29.456340  0.697663E+00  0.214945E+00
  29.483550  0.700032E+00  0.212710E+00
  29.510760  0.702583E+00  0.211039E+00
  29.537970  0.705132E+00  0.209763E+00
  29.565180  0.707649E+00  0.208732E+00
  29.592390  0.710203E+00  0.207862E+00
  29.619600  0.712894E+00  0.207196E+00
  29.646820  0.715735E+00  0.206907E+00
  29.674030  0.718513E+00  0.207171E+00
  29.701240  0.720868E+00  0.207917E+00
  29.728450  0.722602E+00  0.208742E+00
  29.755660  0.723974E+00  0.209274E+00
  29.782870  0.725291E+00  0.209579E+00
  29.810080  0.726581E+00  0.209778E+00
  29.837290  0.727785E+00  0.209877E+00
  29.864510  0.728905E+00  0.209701E+00
  29.891720  0.730240E+00  0.209132E+00
  29.918930  0.732062E+00  0.208413E+00
  29.946140  0.734345E+00  0.207822E+00
  29.973350  0.736997E+00  0.207477E+00
  30.000560  0.739968E+00  0.207484E+00
  30.027770  0.743152E+00  0.207951E+00
  30.054990  0.746426E+00  0.208939E+00
  30.082200  0.749619E+00  0.210493E+00
  30.109410  0.752530E+00  0.212530E+00
  30.136620  0.755089E+00  0.214895E+00
  30.163830  0.757210E+00  0.217501E+00
  30.191040  0.758795E+00  0.220018E+00
  30.218250  0.760293E+00  0.222051E+00
  30.245470  0.762324E+00  0.223977E+00
  30.272680  0.764822E+00  0.226453E+00
  30.299890  0.767320E+00  0.229853E+00
  30.327100  0.769132E+00  0.234095E+00
  30.354310  0.769960E+00  0.238545E+00
  30.381520  0.770071E+00  0.242744E+00
  30.408730  0.769769E+00  0.246684E+00
  30.435950  0.768889E+00  0.250357E+00
  30.463160  0.767529E+00  0.252952E+00
  30.490370  0.767115E+00  0.254253E+00
  30.517580  0.768465E+00  0.255551E+00
  30.544790  0.771203E+00  0.258056E+00
  30.572000  0.774454E+00  0.262295E+00
  30.599210  0.777628E+00  0.268133E+00
  30.626430  0.780636E+00  0.275591E+00
  30.653640  0.783418E+00  0.285085E+00
  30.680850  0.785515E+00  0.297720E+00
  30.708060  0.784848E+00  0.314682E+00
  30.735270  0.777937E+00  0.335489E+00
  30.762480  0.760713E+00  0.356459E+00
  30.789690  0.733825E+00  0.369261E+00
  30.816910  0.705531E+00  0.370540E+00
  30.844120  0.680753E+00  0.364096E+00
  30.871330  0.660229E+00  0.352856E+00
  30.898540  0.644297E+00  0.338592E+00
  30.925750  0.632815E+00  0.323082E+00
  30.952960  0.624992E+00  0.307337E+00
  30.980170  0.620448E+00  0.291833E+00
  31.007380  0.618802E+00  0.277288E+00
  31.034600  0.619311E+00  0.264080E+00
  31.061810  0.621566E+00  0.252193E+00
  31.089020  0.625416E+00  0.241924E+00
  31.116230  0.630231E+00  0.233738E+00
  31.143440  0.635077E+00  0.227527E+00
  31.170650  0.639407E+00  0.222684E+00
  31.197860  0.643134E+00  0.218599E+00
  31.225080  0.646479E+00  0.214853E+00
  31.252290  0.649730E+00  0.211384E+00
  31.279500  0.652947E+00  0.208293E+00
  31.306710  0.656043E+00  0.205543E+00
  31.333920  0.659075E+00  0.202970E+00
  31.361130  0.662269E+00  0.200590E+00
  31.388340  0.665684E+00  0.198642E+00
  31.415560  0.669159E+00  0.197272E+00
  31.442770  0.672554E+00  0.196463E+00
  31.469980  0.675846E+00  0.196231E+00
  31.497190  0.678894E+00  0.196743E+00
  31.524400  0.681279E+00  0.197989E+00
  31.551610  0.682759E+00  0.199566E+00
  31.578820  0.683393E+00  0.201247E+00
  31.606040  0.682999E+00  0.202804E+00
  31.633250  0.681717E+00  0.203615E+00
  31.660460  0.680123E+00  0.203504E+00
  31.687670  0.678579E+00  0.202525E+00
  31.714880  0.677532E+00  0.200899E+00
  31.742090  0.677011E+00  0.199235E+00
  31.769300  0.676489E+00  0.197666E+00
  31.796520  0.675794E+00  0.195655E+00
  31.823730  0.675650E+00  0.192877E+00
  31.850940  0.676592E+00  0.190133E+00
  31.878150  0.678134E+00  0.188007E+00
  31.905360  0.679870E+00  0.186489E+00
  31.932570  0.681614E+00  0.185489E+00
  31.959780  0.683255E+00  0.184954E+00
  31.987000  0.684669E+00  0.184831E+00
  32.014210  0.685775E+00  0.185010E+00
  32.041420  0.686566E+00  0.185453E+00
  32.068630  0.686895E+00  0.186193E+00
  32.095840  0.686469E+00  0.187047E+00
  32.123050  0.685207E+00  0.187496E+00
  32.150260  0.683553E+00  0.187102E+00
  32.177470  0.682041E+00  0.186012E+00
  32.204690  0.680746E+00  0.184492E+00
  32.231900  0.679739E+00  0.182587E+00
  32.259110  0.679157E+00  0.180469E+00
  32.286320  0.678961E+00  0.178372E+00
  32.313530  0.679008E+00  0.176385E+00
  32.340740  0.679244E+00  0.174535E+00
  32.367950  0.679549E+00  0.172936E+00
  32.395170  0.679654E+00  0.171490E+00
  32.422380  0.679593E+00  0.169898E+00
  32.449590  0.679517E+00  0.168153E+00
  32.476800  0.679455E+00  0.166173E+00
  32.504010  0.679651E+00  0.163943E+00
  32.531220  0.680240E+00  0.161743E+00
  32.558430  0.681012E+00  0.159812E+00
  32.585650  0.681729E+00  0.158091E+00
  32.612860  0.682255E+00  0.156450E+00
  32.640070  0.682547E+00  0.154616E+00
  32.667280  0.682850E+00  0.152346E+00
  32.694490  0.683543E+00  0.149668E+00
  32.721700  0.684874E+00  0.146932E+00
  32.748910  0.686684E+00  0.144523E+00
  32.776130  0.688688E+00  0.142475E+00
  32.803340  0.690789E+00  0.140725E+00
  32.830550  0.692917E+00  0.139247E+00
  32.857760  0.695025E+00  0.137968E+00
  32.884970  0.697151E+00  0.136857E+00
  32.912180  0.699277E+00  0.135973E+00
  32.939390  0.701275E+00  0.135301E+00
  32.966610  0.703113E+00  0.134673E+00
  32.993820  0.704934E+00  0.134010E+00
  33.021030  0.706820E+00  0.133398E+00
  33.048240  0.708749E+00  0.132880E+00
  33.075450  0.710736E+00  0.132462E+00
  33.102660  0.712814E+00  0.132208E+00
  33.129870  0.714929E+00  0.132232E+00
  33.157090  0.716920E+00  0.132572E+00
  33.184300  0.718614E+00  0.133096E+00
  33.211510  0.720075E+00  0.133543E+00
  33.238720  0.721574E+00  0.133901E+00
  33.265930  0.723215E+00  0.134415E+00
  33.293140  0.724779E+00  0.135298E+00
  33.320350  0.725992E+00  0.136380E+00
  33.347560  0.726937E+00  0.137414E+00
  33.374780  0.727768E+00  0.138406E+00
  33.401990  0.728506E+00  0.139394E+00
  33.429200  0.729231E+00  0.140367E+00
  33.456410  0.730075E+00  0.141476E+00
  33.483620  0.730990E+00  0.143087E+00
  33.510830  0.731363E+00  0.145464E+00
  33.538040  0.730619E+00  0.148020E+00
  33.565260  0.728954E+00  0.150117E+00
  33.592470  0.726745E+00  0.151537E+00
  33.619680  0.724266E+00  0.152296E+00
  33.646890  0.721651E+00  0.152419E+00
  33.674100  0.719069E+00  0.151939E+00
  33.701310  0.716560E+00  0.150969E+00
  33.728520  0.714137E+00  0.149431E+00
  33.755740  0.712014E+00  0.147298E+00
  33.782950  0.710338E+00  0.144672E+00
  33.810160  0.709335E+00  0.141673E+00
  33.837370  0.709091E+00  0.138722E+00
  33.864580  0.709305E+00  0.136092E+00
  33.891790  0.709725E+00  0.133750E+00
  33.919000  0.710221E+00  0.131620E+00
  33.946220  0.710726E+00  0.129574E+00
  33.973430  0.711288E+00  0.127518E+00
  34.000640  0.711960E+00  0.125440E+00
  34.027850  0.712780E+00  0.123305E+00
  34.055060  0.713909E+00  0.121144E+00
  34.082270  0.715360E+00  0.119217E+00
  34.109480  0.716888E+00  0.117623E+00
  34.136700  0.718322E+00  0.116221E+00
  34.163910  0.719693E+00  0.114838E+00
  34.191120  0.721104E+00  0.113456E+00
  34.218330  0.722572E+00  0.112072E+00
  34.245540  0.724202E+00  0.110654E+00
  34.272750  0.726104E+00  0.109362E+00
  34.299960  0.728151E+00  0.108402E+00
  34.327180  0.730075E+00  0.107726E+00
  34.354390  0.731859E+00  0.107076E+00
  34.381600  0.733690E+00  0.106399E+00
  34.408810  0.735658E+00  0.105799E+00
  34.436020  0.737734E+00  0.105386E+00
  34.463230  0.739834E+00  0.105188E+00
  34.490440  0.741926E+00  0.105170E+00
  34.517650  0.744019E+00  0.105340E+00
  34.544870  0.746108E+00  0.105720E+00
  34.572080  0.748180E+00  0.106351E+00
  34.599290  0.750196E+00  0.107297E+00
  34.626500  0.752063E+00  0.108626E+00
  34.653710  0.753614E+00  0.110380E+00
  34.680920  0.754598E+00  0.112477E+00
  34.708130  0.754897E+00  0.114642E+00
  34.735350  0.754500E+00  0.116722E+00
  34.762560  0.753294E+00  0.118389E+00
  34.789770  0.751579E+00  0.119141E+00
  34.816980  0.750001E+00  0.118926E+00
  34.844190  0.748945E+00  0.118142E+00
  34.871400  0.748396E+00  0.117224E+00
  34.898610  0.748082E+00  0.116341E+00
  34.925830  0.747872E+00  0.115364E+00
  34.953040  0.747881E+00  0.114194E+00
  34.980250  0.748298E+00  0.112978E+00
  35.007460  0.749020E+00  0.111987E+00
  35.034670  0.749812E+00  0.111232E+00
  35.061880  0.750611E+00  0.110583E+00
  35.089090  0.751481E+00  0.110002E+00
  35.116310  0.752448E+00  0.109570E+00
  35.143520  0.753412E+00  0.109379E+00
  35.170730  0.754188E+00  0.109392E+00
  35.197940  0.754683E+00  0.109380E+00
  35.225150  0.755087E+00  0.109159E+00
  35.252360  0.755578E+00  0.108819E+00
  35.279570  0.756141E+00  0.108472E+00
  35.306790  0.756753E+00  0.108100E+00
  35.334000  0.757473E+00  0.107727E+00
  35.361210  0.758304E+00  0.107445E+00
  35.388420  0.759173E+00  0.107318E+00
  35.415630  0.759990E+00  0.107328E+00
  35.442840  0.760730E+00  0.107429E+00
  35.470050  0.761380E+00  0.107608E+00
  35.497270  0.761906E+00  0.107843E+00
  35.524480  0.762281E+00  0.108085E+00
  35.551690  0.762510E+00  0.108261E+00
  35.578900  0.762649E+00  0.108319E+00
  35.606110  0.762761E+00  0.108248E+00
  35.633320  0.762912E+00  0.108073E+00
  35.660530  0.763120E+00  0.107866E+00
  35.687740  0.763340E+00  0.107656E+00
  35.714960  0.763548E+00  0.107426E+00
  35.742170  0.763748E+00  0.107150E+00
  35.769380  0.763984E+00  0.106836E+00
  35.796590  0.764219E+00  0.106539E+00
  35.823800  0.764405E+00  0.106207E+00
  35.851010  0.764569E+00  0.105782E+00
  35.878220  0.764777E+00  0.105241E+00
  35.905440  0.765099E+00  0.104628E+00
  35.932650  0.765536E+00  0.104021E+00
  35.959860  0.766036E+00  0.103454E+00
  35.987070  0.766570E+00  0.102901E+00
  36.014280  0.767161E+00  0.102350E+00
  36.041490  0.767817E+00  0.101831E+00
  36.068700  0.768515E+00  0.101365E+00
  36.095920  0.769230E+00  0.100941E+00
  36.123130  0.769974E+00  0.100539E+00
  36.150340  0.770770E+00  0.100185E+00
  36.177550  0.771597E+00  0.999215E-01
  36.204760  0.772409E+00  0.997606E-01
  36.231970  0.773168E+00  0.996924E-01
  36.259180  0.773826E+00  0.997088E-01
  36.286400  0.774312E+00  0.997529E-01
  36.313610  0.774616E+00  0.996844E-01
  36.340820  0.774860E+00  0.994007E-01
  36.368030  0.775199E+00  0.989288E-01
  36.395240  0.775681E+00  0.983976E-01
  36.422450  0.776247E+00  0.978602E-01
  36.449660  0.776876E+00  0.972990E-01
  36.476880  0.777585E+00  0.967077E-01
  36.504090  0.778390E+00  0.960935E-01
  36.531300  0.779319E+00  0.954701E-01
  36.558510  0.780398E+00  0.948736E-01
  36.585720  0.781636E+00  0.943682E-01
  36.612930  0.782991E+00  0.940198E-01
  36.640140  0.784386E+00  0.938490E-01
  36.667360  0.785779E+00  0.938243E-01
  36.694570  0.787156E+00  0.939419E-01
  36.721780  0.788467E+00  0.941955E-01
  36.748990  0.789681E+00  0.945244E-01
  36.776200  0.790812E+00  0.948698E-01
  36.803410  0.791918E+00  0.951739E-01
  36.830620  0.793118E+00  0.954554E-01
  36.857830  0.794482E+00  0.958360E-01
  36.885050  0.795995E+00  0.964921E-01
  36.912260  0.797431E+00  0.976156E-01
  36.939470  0.798417E+00  0.990454E-01
  36.966680  0.798984E+00  0.100391E+00
  36.993890  0.799363E+00  0.101583E+00
  37.021100  0.799651E+00  0.102671E+00
  37.048310  0.799890E+00  0.103724E+00
  37.075530  0.800051E+00  0.104814E+00
  37.102740  0.800048E+00  0.105973E+00
  37.129950  0.799738E+00  0.107141E+00
  37.157160  0.799091E+00  0.108083E+00
  37.184370  0.798310E+00  0.108665E+00
  37.211580  0.797548E+00  0.108942E+00
  37.238790  0.796878E+00  0.108985E+00
  37.266010  0.796330E+00  0.108889E+00
  37.293220  0.795848E+00  0.108709E+00
  37.320430  0.795402E+00  0.108418E+00
  37.347640  0.795019E+00  0.107998E+00
  37.374850  0.794717E+00  0.107479E+00
  37.402060  0.794447E+00  0.106877E+00
  37.429270  0.794151E+00  0.106087E+00
  37.456490  0.793969E+00  0.104926E+00
  37.483700  0.794189E+00  0.103432E+00
  37.510910  0.794992E+00  0.101838E+00
  37.538120  0.796377E+00  0.100434E+00
  37.565330  0.798200E+00  0.994386E-01
  37.592540  0.800252E+00  0.989751E-01
  37.619750  0.802306E+00  0.990391E-01
  37.646970  0.804230E+00  0.995670E-01
  37.674180  0.805867E+00  0.100564E+00
  37.701390  0.806888E+00  0.101867E+00
  37.728600  0.807227E+00  0.102960E+00
  37.755810  0.807204E+00  0.103520E+00
  37.783020  0.807229E+00  0.103433E+00
  37.810230  0.807686E+00  0.102916E+00
  37.837450  0.808714E+00  0.102304E+00
  37.864660  0.810205E+00  0.101947E+00
  37.891870  0.811852E+00  0.101920E+00
  37.919080  0.813578E+00  0.102016E+00
  37.946290  0.815620E+00  0.102234E+00
  37.973500  0.818062E+00  0.102919E+00
  38.000710  0.820593E+00  0.104455E+00
  38.027920  0.822542E+00  0.106792E+00
  38.055140  0.823673E+00  0.109293E+00
  38.082350  0.824245E+00  0.111638E+00
  38.109560  0.824396E+00  0.113719E+00
  38.136770  0.824290E+00  0.115376E+00
  38.163980  0.824249E+00  0.116522E+00
  38.191190  0.824646E+00  0.117378E+00
  38.218400  0.825562E+00  0.118364E+00
  38.245620  0.826826E+00  0.119846E+00
  38.272830  0.828015E+00  0.122011E+00
  38.300040  0.828793E+00  0.124634E+00
  38.327250  0.829108E+00  0.127581E+00
  38.354460  0.828732E+00  0.130738E+00
  38.381670  0.827571E+00  0.133671E+00
  38.408880  0.825937E+00  0.136070E+00
  38.436100  0.824121E+00  0.137957E+00
  38.463310  0.822260E+00  0.139416E+00
  38.490520  0.820416E+00  0.140540E+00
  38.517730  0.818557E+00  0.141331E+00
  38.544940  0.816857E+00  0.141718E+00
  38.572150  0.815416E+00  0.141992E+00
  38.599360  0.813896E+00  0.142238E+00
  38.626580  0.812131E+00  0.142001E+00
  38.653790  0.810723E+00  0.140851E+00
  38.681000  0.810345E+00  0.139350E+00
  38.708210  0.810734E+00  0.138107E+00
  38.735420  0.811593E+00  0.137136E+00
  38.762630  0.812909E+00  0.136380E+00
  38.789840  0.814762E+00  0.135898E+00
  38.817060  0.817241E+00  0.135867E+00
  38.844270  0.820312E+00  0.136601E+00
  38.871480  0.823748E+00  0.138346E+00
  38.898690  0.827345E+00  0.141252E+00
  38.925900  0.830846E+00  0.145563E+00
  38.953110  0.833755E+00  0.151521E+00
  38.980320  0.835242E+00  0.159121E+00
  39.007540  0.834392E+00  0.167694E+00
  39.034750  0.830940E+00  0.175834E+00
  39.061960  0.826074E+00  0.182474E+00
  39.089170  0.820762E+00  0.188372E+00
  39.116380  0.814576E+00  0.193999E+00
  39.143590  0.807078E+00  0.199328E+00
  39.170800  0.797461E+00  0.203847E+00
  39.198010  0.785369E+00  0.205717E+00
  39.225230  0.772983E+00  0.202846E+00
  39.252440  0.763498E+00  0.196419E+00
  39.279650  0.757395E+00  0.189084E+00
  39.306860  0.753668E+00  0.182134E+00
  39.334070  0.751549E+00  0.175901E+00
  39.361280  0.750501E+00  0.170566E+00
  39.388490  0.749978E+00  0.166109E+00
  39.415710  0.749610E+00  0.162266E+00
  39.442920  0.749274E+00  0.158682E+00
  39.470130  0.749195E+00  0.155078E+00
  39.497340  0.749652E+00  0.151629E+00
  39.524550  0.750524E+00  0.148594E+00
  39.551760  0.751613E+00  0.145945E+00
  39.578970  0.752898E+00  0.143584E+00
  39.606190  0.754443E+00  0.141508E+00
  39.633400  0.756287E+00  0.139834E+00
  39.660610  0.758318E+00  0.138724E+00
  39.687820  0.760272E+00  0.138233E+00
  39.715030  0.761870E+00  0.138106E+00
  39.742240  0.763289E+00  0.137919E+00
  39.769450  0.764988E+00  0.137748E+00
  39.796670  0.767036E+00  0.138009E+00
  39.823880  0.769187E+00  0.138918E+00
  39.851090  0.771185E+00  0.140503E+00
  39.878300  0.772802E+00  0.142612E+00
  39.905510  0.774088E+00  0.145011E+00
  39.932720  0.775233E+00  0.147717E+00
  39.959930  0.776326E+00  0.151016E+00
  39.987150  0.777027E+00  0.155331E+00
  40.014360  0.776516E+00  0.160628E+00
  40.041570  0.774234E+00  0.166028E+00
  40.068780  0.770665E+00  0.170617E+00
  40.095990  0.766526E+00  0.174416E+00
  40.123200  0.761868E+00  0.177652E+00
  40.150410  0.756787E+00  0.180124E+00
  40.177630  0.751627E+00  0.181912E+00
  40.204840  0.746469E+00  0.183277E+00
  40.232050  0.741135E+00  0.184353E+00
  40.259260  0.735487E+00  0.184939E+00
  40.286470  0.729723E+00  0.184800E+00
  40.313680  0.724190E+00  0.183961E+00
  40.340890  0.719114E+00  0.182713E+00
  40.368100  0.714447E+00  0.181375E+00
  40.395320  0.710022E+00  0.180129E+00
  40.422530  0.705630E+00  0.179068E+00
  40.449740  0.701046E+00  0.178135E+00
  40.476950  0.696191E+00  0.177188E+00
  40.504160  0.691048E+00  0.176182E+00
  40.531370  0.685533E+00  0.175079E+00
  40.558580  0.679580E+00  0.173770E+00
  40.585800  0.673191E+00  0.172170E+00
  40.613010  0.666345E+00  0.170261E+00
  40.640220  0.658967E+00  0.168059E+00
  40.667430  0.650778E+00  0.165629E+00
  40.694640  0.641216E+00  0.162785E+00
  40.721850  0.629548E+00  0.158893E+00
  40.749060  0.615015E+00  0.152486E+00
  40.776280  0.597430E+00  0.140486E+00
